9/08/2022	4:46 PM
Amplitude: 5.00 V
Freq  (Hz) 	 Gain (dB)  	 Phase (deg)
100.024            -58.073             89.512
158.511            -54.053             89.571
251.271            -50.066             89.447
398.047            -46.078             89.251
630.878            -42.082             89.138
1000.054            -38.048             88.769
1584.925            -33.874             88.054
2511.963            -29.551             87.097
3981.031            -24.688             85.068
6309.524            -18.040             79.488
9999.983             -3.474              4.978
15848.875            -17.418            -78.483
25118.887            -24.207            -84.817
39810.687            -29.198            -87.224
63095.801            -33.768            -86.946
100000.016            -37.762            -86.437
158489.309            -42.570            -89.154
251188.688            -48.243            -88.703
398107.246            -58.283            -78.440
630957.261            -58.263             67.601
999999.978            -48.735             74.404
